##########################
#
# SN II 199ca spectrum
#
##########################
#
# Reference : Gutierrez et al. 2017, ApJ, 850, 89
# Telescope : NTT
# Instrument: EMMI
# JD        : 2451305.546
#
#  wavelength    flux
#   (angtrom)   
 3258.354    1.3089610e-16
 3261.006    1.6098690e-16
 3263.659    1.4050370e-16
 3266.311    8.4307510e-17
 3268.964    1.0943480e-16
 3271.616    1.1283995e-16
 3274.269    9.1371790e-17
 3276.921    1.2749780e-16
 3279.573    1.1624510e-16
 3282.226    1.1808770e-16
 3284.878    1.3439940e-16
 3287.531    1.2481290e-16
 3290.183    1.0437491e-16
 3292.836    1.0708450e-16
 3295.488    8.0413130e-17
 3298.141    9.0662110e-17
 3300.793    1.0979410e-16
 3303.446    1.2238780e-16
 3306.098    1.0775970e-16
 3308.750    9.0385620e-17
 3311.403    1.1874720e-16
 3314.055    9.9072660e-17
 3316.708    1.0949390e-16
 3319.360    1.1412055e-16
 3322.013    1.1180722e-16
 3324.665    1.3369640e-16
 3327.318    1.1296389e-16
 3329.970    1.0291490e-16
 3332.622    1.3685700e-16
 3335.275    1.4444590e-16
 3337.927    1.3038585e-16
 3340.580    1.4001760e-16
 3343.232    1.2391470e-16
 3345.885    1.2043010e-16
 3348.537    1.0568140e-16
 3351.190    1.0000310e-16
 3353.842    1.1802450e-16
 3356.494    1.1729120e-16
 3359.147    1.4423260e-16
 3361.799    1.5460480e-16
 3364.452    1.2417150e-16
 3367.104    1.2258760e-16
 3369.757    1.3543850e-16
 3372.409    1.4015700e-16
 3375.062    1.3627500e-16
 3377.714    1.4319800e-16
 3380.367    1.2943150e-16
 3383.019    1.2100760e-16
 3385.671    1.3944320e-16
 3388.324    1.6632390e-16
 3390.976    1.5688190e-16
 3393.629    1.4965480e-16
 3396.281    1.5440990e-16
 3398.934    1.4256720e-16
 3401.586    1.3407080e-16
 3404.239    1.3256570e-16
 3406.891    1.3024020e-16
 3409.543    1.2520510e-16
 3412.196    1.4083660e-16
 3414.848    1.5117880e-16
 3417.501    1.3599610e-16
 3420.153    1.1213620e-16
 3422.806    1.3572140e-16
 3425.458    1.4393880e-16
 3428.111    1.4573860e-16
 3430.763    1.4438875e-16
 3433.416    1.4483870e-16
 3436.068    1.5909400e-16
 3438.720    1.2693960e-16
 3441.373    1.0864760e-16
 3444.025    1.2858770e-16
 3446.678    1.2486940e-16
 3449.330    1.1610790e-16
 3451.983    1.3139100e-16
 3454.635    1.5545170e-16
 3457.288    1.5223460e-16
 3459.940    1.4005500e-16
 3462.592    1.3632590e-16
 3465.245    1.3465690e-16
 3467.897    1.3854950e-16
 3470.550    1.4510260e-16
 3473.202    1.5187960e-16
 3475.855    1.5823170e-16
 3478.507    1.6193400e-16
 3481.160    1.6586680e-16
 3483.812    1.7003870e-16
 3486.464    1.7268150e-16
 3489.117    1.7563560e-16
 3491.769    1.8332160e-16
 3494.422    1.8293880e-16
 3497.074    1.6855650e-16
 3499.727    1.6834130e-16
 3502.379    1.7982850e-16
 3505.032    1.8489800e-16
 3507.684    1.8084430e-16
 3510.337    1.9585640e-16
 3512.989    1.9776020e-16
 3515.641    1.9221620e-16
 3518.294    1.9396600e-16
 3520.946    1.9704670e-16
 3523.599    1.9468180e-16
 3526.251    1.9512700e-16
 3528.904    1.9598940e-16
 3531.556    1.8253070e-16
 3534.209    1.8059310e-16
 3536.861    1.8968410e-16
 3539.513    1.9444290e-16
 3542.166    1.8578220e-16
 3544.818    1.8639050e-16
 3547.471    1.8756600e-16
 3550.123    1.8818980e-16
 3552.776    1.9654600e-16
 3555.428    2.0133340e-16
 3558.081    1.9764110e-16
 3560.733    1.9273420e-16
 3563.386    1.9564190e-16
 3566.038    2.0045320e-16
 3568.690    2.0140730e-16
 3571.343    2.0799690e-16
 3573.995    2.2390320e-16
 3576.648    2.2405160e-16
 3579.300    2.1990180e-16
 3581.953    2.1027050e-16
 3584.605    1.9866820e-16
 3587.258    2.0821760e-16
 3589.910    2.2626890e-16
 3592.562    2.3305370e-16
 3595.215    2.2765690e-16
 3597.867    2.3221210e-16
 3600.520    2.3414280e-16
 3603.172    2.4099260e-16
 3605.825    2.5236950e-16
 3608.477    2.5259870e-16
 3611.130    2.5262840e-16
 3613.782    2.4825140e-16
 3616.434    2.3980570e-16
 3619.087    2.3857400e-16
 3621.739    2.5503580e-16
 3624.392    2.6783920e-16
 3627.044    2.6369090e-16
 3629.697    2.5293450e-16
 3632.349    2.5969470e-16
 3635.002    2.6169550e-16
 3637.654    2.5582990e-16
 3640.307    2.5757500e-16
 3642.959    2.6621030e-16
 3645.611    2.6114410e-16
 3648.264    2.5334670e-16
 3650.916    2.5571770e-16
 3653.569    2.4139970e-16
 3656.221    2.2824380e-16
 3658.874    2.3811600e-16
 3661.526    2.6521010e-16
 3664.179    2.6867580e-16
 3666.831    2.6003630e-16
 3669.483    2.4906560e-16
 3672.136    2.4064750e-16
 3674.788    2.3669240e-16
 3677.441    2.4028400e-16
 3680.093    2.4041090e-16
 3682.746    2.2980240e-16
 3685.398    2.1706890e-16
 3688.051    2.2638440e-16
 3690.703    2.3788620e-16
 3693.356    2.3852800e-16
 3696.008    2.3871410e-16
 3698.660    2.4046400e-16
 3701.313    2.4190060e-16
 3703.965    2.4867360e-16
 3706.618    2.6460590e-16
 3709.270    2.6927500e-16
 3711.923    2.6878040e-16
 3714.575    2.7008920e-16
 3717.228    2.7761650e-16
 3719.880    2.9919830e-16
 3722.532    3.2233590e-16
 3725.185    3.3965000e-16
 3727.837    3.5273280e-16
 3730.490    3.6666060e-16
 3733.142    3.8080090e-16
 3735.795    3.8928340e-16
 3738.447    3.9126420e-16
 3741.100    3.9636880e-16
 3743.752    4.0140000e-16
 3746.404    4.0543530e-16
 3749.057    4.0874540e-16
 3751.709    4.1149520e-16
 3754.362    4.1681730e-16
 3757.014    4.2333230e-16
 3759.667    4.2552020e-16
 3762.319    4.2008800e-16
 3764.972    4.2059160e-16
 3767.624    4.2761130e-16
 3770.277    4.3533920e-16
 3772.929    4.3902110e-16
 3775.581    4.3984000e-16
 3778.234    4.4614800e-16
 3780.886    4.5798260e-16
 3783.539    4.6668470e-16
 3786.191    4.6631510e-16
 3788.844    4.7447820e-16
 3791.496    4.8443250e-16
 3794.149    4.7793590e-16
 3796.801    4.6364850e-16
 3799.453    4.6350840e-16
 3802.106    4.6837830e-16
 3804.758    4.6468090e-16
 3807.411    4.7114080e-16
 3810.063    4.6975920e-16
 3812.716    4.5446900e-16
 3815.368    4.3754600e-16
 3818.021    4.3902490e-16
 3820.673    4.4084120e-16
 3823.326    4.3450460e-16
 3825.978    4.2582690e-16
 3828.630    4.2615870e-16
 3831.283    4.2693350e-16
 3833.935    4.1447180e-16
 3836.588    3.9503640e-16
 3839.240    3.9024050e-16
 3841.893    3.8467700e-16
 3844.545    3.7407840e-16
 3847.198    3.6426110e-16
 3849.850    3.6061640e-16
 3852.502    3.4990500e-16
 3855.155    3.4702360e-16
 3857.807    3.5636420e-16
 3860.460    3.6420960e-16
 3863.112    3.5680110e-16
 3865.765    3.4118610e-16
 3868.417    3.3734130e-16
 3871.070    3.5114270e-16
 3873.722    3.5062630e-16
 3876.374    3.4841430e-16
 3879.027    3.4570670e-16
 3881.679    3.4000270e-16
 3884.332    3.4333170e-16
 3886.984    3.5167260e-16
 3889.637    3.5172000e-16
 3892.289    3.4602260e-16
 3894.942    3.6098250e-16
 3897.594    3.7466770e-16
 3900.247    3.7756090e-16
 3902.899    3.7310330e-16
 3905.551    3.7023460e-16
 3908.204    3.7723950e-16
 3910.856    3.8218770e-16
 3913.509    3.7811900e-16
 3916.161    3.7623010e-16
 3918.814    3.9497380e-16
 3921.466    4.1623590e-16
 3924.119    4.2115430e-16
 3926.771    4.1168330e-16
 3929.423    4.0857370e-16
 3932.076    4.1928590e-16
 3934.728    4.3838800e-16
 3937.381    4.5388750e-16
 3940.033    4.5729640e-16
 3942.686    4.6325030e-16
 3945.338    4.7634170e-16
 3947.991    4.9055160e-16
 3950.643    5.0416330e-16
 3953.296    5.1333590e-16
 3955.948    5.2502380e-16
 3958.600    5.4145110e-16
 3961.253    5.4618720e-16
 3963.905    5.4714560e-16
 3966.558    5.5531990e-16
 3969.210    5.7442470e-16
 3971.863    5.9726230e-16
 3974.515    6.2570920e-16
 3977.168    6.4059130e-16
 3979.820    6.4001050e-16
 3982.472    6.5147270e-16
 3985.125    6.6992110e-16
 3987.777    6.7986900e-16
 3990.430    6.8199860e-16
 3993.082    6.9414590e-16
 3995.735    7.1336560e-16
 3998.387    7.1858620e-16
 4001.040    7.1172040e-16
 4003.692    7.1633040e-16
 4006.344    7.3266540e-16
 4008.997    7.4124380e-16
 4011.649    7.4482350e-16
 4014.302    7.5805010e-16
 4016.954    7.6453840e-16
 4019.607    7.7186490e-16
 4022.259    7.8276960e-16
 4024.912    7.9216920e-16
 4027.564    7.9528670e-16
 4030.217    7.8762010e-16
 4032.869    7.7270040e-16
 4035.521    7.6008760e-16
 4038.174    7.5834260e-16
 4040.826    7.4859280e-16
 4043.479    7.3842970e-16
 4046.131    7.3659380e-16
 4048.784    7.3012860e-16
 4051.436    7.2259960e-16
 4054.089    7.1726650e-16
 4056.741    7.1380640e-16
 4059.393    7.0931320e-16
 4062.046    7.0770630e-16
 4064.698    7.0799190e-16
 4067.351    7.0815130e-16
 4070.003    7.0564560e-16
 4072.656    6.8964660e-16
 4075.308    6.8151050e-16
 4077.961    6.8336000e-16
 4080.613    6.7673130e-16
 4083.266    6.7192200e-16
 4085.918    6.6844860e-16
 4088.570    6.5794040e-16
 4091.223    6.3776620e-16
 4093.875    6.2727820e-16
 4096.528    6.2825300e-16
 4099.180    6.2710630e-16
 4101.833    6.1449200e-16
 4104.485    6.0568320e-16
 4107.138    6.0241080e-16
 4109.790    6.0531110e-16
 4112.442    6.1175890e-16
 4115.095    6.1450000e-16
 4117.747    6.1492640e-16
 4120.400    6.2346810e-16
 4123.052    6.3984730e-16
 4125.705    6.4636530e-16
 4128.357    6.6117430e-16
 4131.010    6.7085630e-16
 4133.662    6.6923650e-16
 4136.314    6.7539830e-16
 4138.967    6.8392730e-16
 4141.619    6.8618280e-16
 4144.272    6.8544100e-16
 4146.924    6.9158420e-16
 4149.577    6.8471580e-16
 4152.229    6.9162120e-16
 4154.882    6.9179780e-16
 4157.534    6.7359965e-16
 4160.187    6.6160195e-16
 4162.839    6.6121687e-16
 4165.491    6.6248350e-16
 4168.144    6.6072040e-16
 4170.796    6.6083180e-16
 4173.449    6.5809840e-16
 4176.101    6.5008380e-16
 4178.754    6.4456660e-16
 4181.406    6.4826600e-16
 4184.059    6.4499720e-16
 4186.711    6.3407390e-16
 4189.363    6.2918980e-16
 4192.016    6.4284230e-16
 4194.668    6.5318340e-16
 4197.321    6.5358900e-16
 4199.973    6.4364410e-16
 4202.626    6.1975330e-16
 4205.278    6.0389320e-16
 4207.931    5.9058130e-16
 4210.583    5.7252630e-16
 4213.236    5.5716230e-16
 4215.888    5.4479540e-16
 4218.540    5.3611510e-16
 4221.193    5.2565570e-16
 4223.845    5.0625190e-16
 4226.498    4.8750210e-16
 4229.150    4.7315510e-16
 4231.803    4.6195120e-16
 4234.455    4.5176740e-16
 4237.108    4.4555210e-16
 4239.760    4.4503310e-16
 4242.412    4.4357790e-16
 4245.065    4.3394560e-16
 4247.717    4.2250690e-16
 4250.370    4.2666390e-16
 4253.022    4.3784000e-16
 4255.675    4.3783590e-16
 4258.327    4.3179680e-16
 4260.980    4.3487340e-16
 4263.632    4.4532370e-16
 4266.284    4.5225710e-16
 4268.937    4.5214250e-16
 4271.589    4.5609090e-16
 4274.242    4.6260370e-16
 4276.894    4.6783370e-16
 4279.547    4.7587720e-16
 4282.199    4.8832040e-16
 4284.852    5.0468690e-16
 4287.504    5.1998420e-16
 4290.157    5.2729760e-16
 4292.809    5.2844580e-16
 4295.461    5.3164880e-16
 4298.114    5.3532780e-16
 4300.766    5.3231570e-16
 4303.419    5.4221160e-16
 4306.071    5.4808410e-16
 4308.724    5.4360200e-16
 4311.376    5.4053310e-16
 4314.029    5.3859590e-16
 4316.681    5.4103090e-16
 4319.333    5.4559690e-16
 4321.986    5.4747760e-16
 4324.638    5.4770280e-16
 4327.291    5.4739060e-16
 4329.943    5.4529590e-16
 4332.596    5.4304150e-16
 4335.248    5.4999860e-16
 4337.901    5.5509690e-16
 4340.553    5.6407070e-16
 4343.206    5.8056760e-16
 4345.858    5.8690650e-16
 4348.510    5.8954880e-16
 4351.163    5.9437220e-16
 4353.815    5.9733290e-16
 4356.468    5.8908000e-16
 4359.120    6.0510100e-16
 4361.773    6.2302560e-16
 4364.425    6.2438170e-16
 4367.078    6.2790140e-16
 4369.730    6.3650860e-16
 4372.382    6.3305490e-16
 4375.035    6.2281440e-16
 4377.687    6.2920040e-16
 4380.340    6.2598520e-16
 4382.992    6.2548520e-16
 4385.645    6.2974700e-16
 4388.297    6.2791020e-16
 4390.950    6.3314260e-16
 4393.602    6.3438910e-16
 4396.254    6.3199880e-16
 4398.907    6.3709860e-16
 4401.559    6.5154070e-16
 4404.212    6.4456060e-16
 4406.864    6.2759890e-16
 4409.517    6.2727560e-16
 4412.169    6.3124000e-16
 4414.822    6.3207060e-16
 4417.474    6.2838740e-16
 4420.127    6.2485600e-16
 4422.779    6.2694960e-16
 4425.431    6.1910790e-16
 4428.084    6.0997720e-16
 4430.736    6.0717140e-16
 4433.389    5.9977650e-16
 4436.041    5.9609370e-16
 4438.694    5.9311060e-16
 4441.346    5.9018680e-16
 4443.999    5.9220230e-16
 4446.651    5.8639900e-16
 4449.303    5.7195100e-16
 4451.956    5.5976110e-16
 4454.608    5.5812470e-16
 4457.261    5.4476810e-16
 4459.913    5.3520570e-16
 4462.566    5.3547500e-16
 4465.218    5.3257910e-16
 4467.871    5.1866810e-16
 4470.523    5.1426950e-16
 4473.176    5.1660420e-16
 4475.828    5.0976830e-16
 4478.480    5.0469920e-16
 4481.133    5.0300160e-16
 4483.785    4.9836800e-16
 4486.438    4.9117490e-16
 4489.090    5.0005420e-16
 4491.743    5.0812300e-16
 4494.395    5.0685470e-16
 4497.048    5.0286100e-16
 4499.700    5.1030600e-16
 4502.352    5.1422460e-16
 4505.005    5.1873880e-16
 4507.657    5.3112110e-16
 4510.310    5.4765340e-16
 4512.962    5.7229320e-16
 4515.615    5.9579500e-16
 4518.267    6.1100390e-16
 4520.920    6.2128120e-16
 4523.572    6.2960520e-16
 4526.224    6.5008910e-16
 4528.877    6.8474740e-16
 4531.529    7.1779190e-16
 4534.182    7.3142080e-16
 4536.834    7.4962320e-16
 4539.487    7.7859080e-16
 4542.139    7.9961570e-16
 4544.792    8.0740320e-16
 4547.444    8.0434590e-16
 4550.097    8.0234650e-16
 4552.749    8.1057500e-16
 4555.401    8.2094670e-16
 4558.054    8.2658920e-16
 4560.706    8.3293310e-16
 4563.359    8.4741130e-16
 4566.011    8.6463230e-16
 4568.664    8.7337310e-16
 4571.316    8.7454070e-16
 4573.969    8.8124030e-16
 4576.621    9.0693420e-16
 4579.273    9.2334260e-16
 4581.926    9.1998010e-16
 4584.578    9.0645370e-16
 4587.231    9.0146050e-16
 4589.883    9.1917760e-16
 4592.536    9.3418220e-16
 4595.188    9.3913780e-16
 4597.841    9.5887500e-16
 4600.493    9.7249260e-16
 4603.146    9.8916040e-16
 4605.798    1.0089610e-15
 4608.450    1.0223000e-15
 4611.103    1.0572090e-15
 4613.755    1.0759485e-15
 4616.408    1.0853182e-15
 4619.060    1.0946880e-15
 4621.713    1.0977660e-15
 4624.365    1.0980860e-15
 4627.018    1.0893060e-15
 4629.670    1.0840870e-15
 4632.322    1.1089410e-15
 4634.975    1.1212920e-15
 4637.627    1.1180980e-15
 4640.280    1.1199650e-15
 4642.932    1.1222530e-15
 4645.585    1.1257100e-15
 4648.237    1.1209450e-15
 4650.890    1.1074540e-15
 4653.542    1.1037410e-15
 4656.195    1.0924810e-15
 4658.847    1.0859720e-15
 4661.499    1.0907630e-15
 4664.152    1.0866180e-15
 4666.804    1.0718710e-15
 4669.457    1.0610970e-15
 4672.109    1.0555540e-15
 4674.762    1.0398250e-15
 4677.414    1.0275160e-15
 4680.067    1.0214250e-15
 4682.719    1.0175620e-15
 4685.371    1.0096940e-15
 4688.024    9.9191810e-16
 4690.676    9.8243870e-16
 4693.329    9.7822890e-16
 4695.981    9.6296680e-16
 4698.634    9.5209820e-16
 4701.286    9.3982990e-16
 4703.939    9.2995180e-16
 4706.591    9.2760290e-16
 4709.243    9.1857140e-16
 4711.896    9.0298690e-16
 4714.548    8.9633120e-16
 4717.201    9.0363040e-16
 4719.853    8.9851930e-16
 4722.506    8.8429630e-16
 4725.158    8.7199870e-16
 4727.811    8.6545130e-16
 4730.463    8.5464940e-16
 4733.116    8.4343220e-16
 4735.768    8.2885740e-16
 4738.420    8.2091050e-16
 4741.073    8.3766160e-16
 4743.725    8.2267660e-16
 4746.378    7.9825040e-16
 4749.030    7.8144160e-16
 4751.683    7.5371200e-16
 4754.335    7.5183210e-16
 4756.988    7.5765640e-16
 4759.640    7.5132200e-16
 4762.292    7.3427710e-16
 4764.945    7.1034570e-16
 4767.597    6.9817820e-16
 4770.250    6.9808970e-16
 4772.902    6.9389520e-16
 4775.555    6.7981400e-16
 4778.207    6.7560450e-16
 4780.860    6.7785640e-16
 4783.512    6.7320110e-16
 4786.165    6.7500570e-16
 4788.817    6.7817930e-16
 4791.469    6.7486280e-16
 4794.122    6.6786160e-16
 4796.774    6.9330760e-16
 4799.427    7.0843590e-16
 4802.079    7.3868140e-16
 4804.732    7.5088940e-16
 4807.384    7.7071630e-16
 4810.037    8.0078670e-16
 4812.689    8.3298380e-16
 4815.341    8.6002870e-16
 4817.994    8.8257370e-16
 4820.646    8.9937150e-16
 4823.299    9.0870310e-16
 4825.951    9.1689270e-16
 4828.604    9.3323620e-16
 4831.256    9.4408570e-16
 4833.909    9.4478930e-16
 4836.561    9.4431130e-16
 4839.213    9.5281140e-16
 4841.866    9.5529990e-16
 4844.518    9.5246640e-16
 4847.171    9.5279190e-16
 4849.823    9.5959660e-16
 4852.476    9.5811410e-16
 4855.128    9.7493260e-16
 4857.781    1.0071000e-15
 4860.433    1.0329920e-15
 4863.086    1.0555730e-15
 4865.738    1.0662680e-15
 4868.390    1.0782600e-15
 4871.043    1.1023200e-15
 4873.695    1.1202560e-15
 4876.348    1.1388060e-15
 4879.000    1.1627570e-15
 4881.653    1.1845710e-15
 4884.305    1.1882350e-15
 4886.958    1.2072490e-15
 4889.610    1.2223960e-15
 4892.262    1.2200360e-15
 4894.915    1.2246950e-15
 4897.567    1.2265170e-15
 4900.220    1.2329380e-15
 4902.872    1.2367950e-15
 4905.525    1.2192240e-15
 4908.177    1.2096800e-15
 4910.830    1.2055300e-15
 4913.482    1.1963970e-15
 4916.135    1.1788380e-15
 4918.787    1.1562230e-15
 4921.439    1.1335200e-15
 4924.092    1.1146990e-15
 4926.744    1.0996380e-15
 4929.397    1.0823850e-15
 4932.049    1.0592340e-15
 4934.702    1.0354850e-15
 4937.354    1.0156500e-15
 4940.007    9.9065310e-16
 4942.659    9.7840460e-16
 4945.311    9.7072020e-16
 4947.964    9.5855760e-16
 4950.616    9.6334920e-16
 4953.269    9.7731470e-16
 4955.921    9.8764060e-16
 4958.574    9.9551260e-16
 4961.226    1.0186000e-15
 4963.879    1.0296710e-15
 4966.531    1.0335920e-15
 4969.183    1.0475510e-15
 4971.836    1.0617110e-15
 4974.488    1.0600470e-15
 4977.141    1.0621950e-15
 4979.793    1.0827000e-15
 4982.446    1.0923380e-15
 4985.098    1.1130780e-15
 4987.751    1.1026890e-15
 4990.403    1.0764440e-15
 4993.056    1.0884380e-15
 4995.708    1.1012980e-15
 4998.360    1.0812440e-15
 5001.013    1.0785300e-15
 5003.665    1.0995410e-15
 5006.318    1.1109490e-15
 5008.970    1.1168880e-15
 5011.623    1.1203570e-15
 5014.275    1.1284910e-15
 5016.928    1.1367960e-15
 5019.580    1.1317690e-15
 5022.232    1.1273260e-15
 5024.885    1.1173790e-15
 5027.537    1.1057490e-15
 5030.190    1.1114780e-15
 5032.842    1.1066070e-15
 5035.495    1.0857220e-15
 5038.147    1.0690610e-15
 5040.800    1.0689290e-15
 5043.452    1.0635320e-15
 5046.105    1.0252910e-15
 5048.757    1.0036460e-15
 5051.409    9.9054910e-16
 5054.062    9.7514650e-16
 5056.714    9.6600420e-16
 5059.367    9.5626860e-16
 5062.019    9.2158640e-16
 5064.672    9.0329180e-16
 5067.324    9.1561910e-16
 5069.977    9.0894300e-16
 5072.629    8.7263050e-16
 5075.281    8.4630190e-16
 5077.934    8.3488250e-16
 5080.586    8.3341440e-16
 5083.239    8.1603440e-16
 5085.891    7.6062880e-16
 5088.544    7.4967140e-16
 5091.196    7.7206500e-16
 5093.849    7.6191430e-16
 5096.501    7.1280180e-16
 5099.153    7.1944750e-16
 5101.806    7.0698770e-16
 5104.458    6.9763880e-16
 5107.111    7.1160420e-16
 5109.763    6.9518370e-16
 5112.416    6.9932520e-16
 5115.068    6.8369210e-16
 5117.721    6.9836290e-16
 5120.373    7.0968960e-16
 5123.026    7.2453230e-16
 5125.678    7.4549250e-16
 5128.330    7.3729350e-16
 5130.983    7.5631780e-16
 5133.635    7.5787880e-16
 5136.288    7.7466570e-16
 5138.940    7.7798615e-16
 5141.593    7.8130660e-16
 5144.245    8.0583440e-16
 5146.898    8.0931280e-16
 5149.550    7.9357050e-16
 5152.202    8.0757360e-16
 5154.855    8.1174990e-16
 5157.507    8.4704090e-16
 5160.160    8.1418700e-16
 5162.812    8.2637490e-16
 5165.465    8.6695390e-16
 5168.117    8.5674910e-16
 5170.770    8.8738535e-16
 5173.422    8.8766098e-16
 5176.075    9.0781680e-16
 5178.727    8.8752316e-16
 5181.379    8.8793660e-16
 5184.032    8.7694080e-16
 5186.684    8.7767330e-16
 5189.337    8.7878660e-16
 5191.989    9.3262460e-16
 5194.642    9.1008820e-16
