##########################
#
# SN II 199ca spectrum
#
##########################
#
# Reference : Gutierrez et al. 2017, ApJ, 850, 89
# Telescope : Danish 1.54m
# Instrument: DFOSC
# JD        : 2451309.563
#
#  wavelength    flux
#   (angtrom)   
 3408.176    2.1344890e-16
 3410.297    2.8335230e-16
 3412.418    2.3611720e-16
 3414.539    2.2478305e-16
 3416.660    1.9992470e-16
 3418.781    1.8412430e-16
 3420.902    1.8670745e-16
 3423.023    1.6832390e-16
 3425.143    1.7622410e-16
 3427.264    1.8929060e-16
 3429.385    1.7774880e-16
 3431.506    1.5609850e-16
 3433.627    1.7927350e-16
 3435.748    2.0359645e-16
 3437.869    1.9143497e-16
 3439.990    1.8535424e-16
 3442.111    1.8839461e-16
 3444.232    1.8687442e-16
 3446.352    1.8611433e-16
 3448.473    1.5127556e-16
 3450.594    1.6869495e-16
 3452.715    1.7563782e-16
 3454.836    1.7910926e-16
 3456.957    2.0632020e-16
 3459.078    1.8258070e-16
 3461.199    1.9445045e-16
 3463.320    1.5884120e-16
 3465.441    2.1056370e-16
 3467.562    1.7664582e-16
 3469.682    1.4745710e-16
 3471.803    1.9635500e-16
 3473.924    2.1306050e-16
 3476.045    1.8214630e-16
 3478.166    2.2853810e-16
 3480.287    1.9760340e-16
 3482.408    1.9984120e-16
 3484.529    2.3827460e-16
 3486.650    2.1975195e-16
 3488.771    2.0207900e-16
 3490.891    2.4430330e-16
 3493.012    2.3742490e-16
 3495.133    2.3748255e-16
 3497.254    2.3751138e-16
 3499.375    2.3754020e-16
 3501.496    2.2651323e-16
 3503.617    2.1554390e-16
 3505.738    1.9341470e-16
 3507.859    1.7699710e-16
 3509.980    2.0447930e-16
 3512.100    2.1261965e-16
 3514.221    2.3824450e-16
 3516.342    2.2076000e-16
 3518.463    2.3051400e-16
 3520.584    2.5972540e-16
 3522.705    2.1086250e-16
 3524.826    1.6766730e-16
 3526.947    1.7793280e-16
 3529.068    2.0096500e-16
 3531.189    2.4570620e-16
 3533.309    1.7309480e-16
 3535.430    2.1688860e-16
 3537.551    1.9499170e-16
 3539.672    2.0594015e-16
 3541.793    2.3386410e-16
 3543.914    2.8724680e-16
 3546.035    2.7772520e-16
 3548.156    2.5083960e-16
 3550.277    2.6789890e-16
 3552.398    2.8626250e-16
 3554.519    2.9479980e-16
 3556.639    3.0825025e-16
 3558.760    3.2229040e-16
 3560.881    3.2170070e-16
 3563.002    3.3785990e-16
 3565.123    2.8157770e-16
 3567.244    3.0163920e-16
 3569.365    3.1974955e-16
 3571.486    2.7257720e-16
 3573.607    3.6441170e-16
 3575.728    2.9482115e-16
 3577.848    2.8161250e-16
 3579.969    3.3537125e-16
 3582.090    3.0802980e-16
 3584.211    3.6271270e-16
 3586.332    3.4904197e-16
 3588.453    3.1893520e-16
 3590.574    3.7694200e-16
 3592.695    3.7831160e-16
 3594.816    3.6454110e-16
 3596.937    3.3060820e-16
 3599.057    3.6632410e-16
 3601.178    3.9476740e-16
 3603.299    3.7247260e-16
 3605.420    3.3545660e-16
 3607.541    3.2267940e-16
 3609.662    3.3801780e-16
 3611.783    3.3758200e-16
 3613.904    3.3779990e-16
 3616.025    3.3362970e-16
 3618.146    3.3769095e-16
 3620.266    3.3774543e-16
 3622.387    3.9368660e-16
 3624.508    3.1881260e-16
 3626.629    3.8225020e-16
 3628.750    3.4892950e-16
 3630.871    3.6788730e-16
 3632.992    3.1838420e-16
 3635.113    3.8029690e-16
 3637.234    3.7227200e-16
 3639.355    3.4204080e-16
 3641.476    3.4931410e-16
 3643.596    3.4251900e-16
 3645.717    3.5063420e-16
 3647.838    3.4997415e-16
 3649.959    3.5030418e-16
 3652.080    3.7068340e-16
 3654.201    3.5013916e-16
 3656.322    2.9971230e-16
 3658.443    3.1594640e-16
 3660.564    3.5950620e-16
 3662.685    3.3772630e-16
 3664.805    3.4111345e-16
 3666.926    3.3941988e-16
 3669.047    3.0837270e-16
 3671.168    3.4450060e-16
 3673.289    3.1968740e-16
 3675.410    3.0082840e-16
 3677.531    3.2677340e-16
 3679.652    2.7836310e-16
 3681.773    3.2880620e-16
 3683.894    2.7178030e-16
 3686.014    3.1030740e-16
 3688.135    2.9180860e-16
 3690.256    3.3735080e-16
 3692.377    3.5435970e-16
 3694.498    3.5740430e-16
 3696.619    3.4585525e-16
 3698.740    2.6891100e-16
 3700.861    3.1766020e-16
 3702.982    3.6696320e-16
 3705.103    3.4542020e-16
 3707.223    3.5707850e-16
 3709.344    3.4353530e-16
 3711.465    3.2024810e-16
 3713.586    3.4769680e-16
 3715.707    3.9254200e-16
 3717.828    3.8994740e-16
 3719.949    3.8271090e-16
 3722.070    3.7810090e-16
 3724.191    3.8612850e-16
 3726.312    4.6725250e-16
 3728.433    4.4709500e-16
 3730.553    4.4113430e-16
 3732.674    4.4337710e-16
 3734.795    4.9940350e-16
 3736.916    4.6823990e-16
 3739.037    4.7675065e-16
 3741.158    4.8526140e-16
 3743.279    4.8996620e-16
 3745.400    4.3958000e-16
 3747.521    4.6690040e-16
 3749.642    4.9013390e-16
 3751.762    5.3475820e-16
 3753.883    5.5805050e-16
 3756.004    4.9030160e-16
 3758.125    5.2397540e-16
 3760.246    5.1858400e-16
 3762.367    5.1319260e-16
 3764.488    4.9688970e-16
 3766.609    5.3265060e-16
 3768.730    5.6298900e-16
 3770.851    5.2610320e-16
 3772.971    5.4477995e-16
 3775.092    5.0841370e-16
 3777.213    5.8785830e-16
 3779.334    5.5690930e-16
 3781.455    6.0535370e-16
 3783.576    5.1857650e-16
 3785.697    5.5561115e-16
 3787.818    5.5431300e-16
 3789.939    5.4979600e-16
 3792.060    5.5883000e-16
 3794.180    6.2721710e-16
 3796.301    6.2435730e-16
 3798.422    6.3964830e-16
 3800.543    6.4005810e-16
 3802.664    5.7726530e-16
 3804.785    5.7003720e-16
 3806.906    6.1919100e-16
 3809.027    6.0217680e-16
 3811.148    6.2802200e-16
 3813.269    6.2803290e-16
 3815.390    5.5496190e-16
 3817.510    5.7526260e-16
 3819.631    6.0600290e-16
 3821.752    5.5998310e-16
 3823.873    5.9415610e-16
 3825.994    5.3578660e-16
 3828.115    5.4788485e-16
 3830.236    4.8480020e-16
 3832.357    5.7052730e-16
 3834.478    5.1699050e-16
 3836.599    5.0927850e-16
 3838.719    5.2266660e-16
 3840.840    4.9504230e-16
 3842.961    4.9036640e-16
 3845.082    4.5892380e-16
 3847.203    4.8569050e-16
 3849.324    4.6034830e-16
 3851.445    4.4880260e-16
 3853.566    4.0759720e-16
 3855.687    4.0465470e-16
 3857.808    4.6222960e-16
 3859.928    4.3609260e-16
 3862.049    4.3866550e-16
 3864.170    4.0640500e-16
 3866.291    4.4646800e-16
 3868.412    4.6256330e-16
 3870.533    4.2977720e-16
 3872.654    4.1039590e-16
 3874.775    3.9028810e-16
 3876.896    4.0999490e-16
 3879.017    4.1019540e-16
 3881.137    4.4365950e-16
 3883.258    4.6654390e-16
 3885.379    3.9547870e-16
 3887.500    4.2878310e-16
 3889.621    4.4292720e-16
 3891.742    4.5092750e-16
 3893.863    4.3614070e-16
 3895.984    4.6899500e-16
 3898.105    4.5162460e-16
 3900.226    4.5642410e-16
 3902.347    4.1061070e-16
 3904.467    4.0373710e-16
 3906.588    4.5491020e-16
 3908.709    4.5468330e-16
 3910.830    4.0651940e-16
 3912.951    4.3906280e-16
 3915.072    4.5648740e-16
 3917.193    4.3318360e-16
 3919.314    4.6633640e-16
 3921.435    4.4926770e-16
 3923.556    4.7621880e-16
 3925.676    4.8760340e-16
 3927.797    4.9711780e-16
 3929.918    4.9456630e-16
 3932.039    4.6306490e-16
 3934.160    5.0430550e-16
 3936.281    5.6401820e-16
 3938.402    5.3738800e-16
 3940.523    5.5873770e-16
 3942.644    5.4890280e-16
 3944.765    5.8724650e-16
 3946.885    6.3218960e-16
 3949.006    6.2377800e-16
 3951.127    6.6224720e-16
 3953.248    6.2961320e-16
 3955.369    6.4444110e-16
 3957.490    6.3524980e-16
 3959.611    6.4395900e-16
 3961.732    6.5957330e-16
 3963.853    7.1337860e-16
 3965.974    6.9258450e-16
 3968.094    7.0298155e-16
 3970.215    7.1818660e-16
 3972.336    7.2299460e-16
 3974.457    7.9254110e-16
 3976.578    7.7209910e-16
 3978.699    8.2999760e-16
 3980.820    7.9368710e-16
 3982.941    8.3371410e-16
 3985.062    8.3743060e-16
 3987.183    8.5801720e-16
 3989.304    8.7100360e-16
 3991.424    9.0314670e-16
 3993.545    9.2787400e-16
 3995.666    9.3223430e-16
 3997.787    8.9902540e-16
 3999.908    8.9251700e-16
 4002.029    9.1793740e-16
 4004.150    9.2169765e-16
 4006.271    9.2545790e-16
 4008.392    9.5586650e-16
 4010.513    9.5370950e-16
 4012.633    9.6851370e-16
 4014.754    9.8116090e-16
 4016.875    9.9742200e-16
 4018.996    1.0032490e-15
 4021.117    1.0122640e-15
 4023.238    1.0531280e-15
 4025.359    1.0307025e-15
 4027.480    1.0563460e-15
 4029.601    1.0277110e-15
 4031.722    1.0336940e-15
 4033.842    1.0283780e-15
 4035.963    1.0197370e-15
 4038.084    1.0145950e-15
 4040.205    9.9526540e-16
 4042.326    1.0359390e-15
 4044.447    1.0525360e-15
 4046.568    1.0391340e-15
 4048.689    9.7910720e-16
 4050.810    9.6172390e-16
 4052.931    9.2790800e-16
 4055.051    9.4491060e-16
 4057.172    9.1517420e-16
 4059.293    9.3908450e-16
 4061.414    9.4110830e-16
 4063.535    9.4766950e-16
 4065.656    9.4192230e-16
 4067.777    9.6709310e-16
 4069.898    9.7043420e-16
 4072.019    9.5010750e-16
 4074.140    9.2647140e-16
 4076.261    9.4520750e-16
 4078.381    9.2852830e-16
 4080.502    9.0318010e-16
 4082.623    8.9451510e-16
 4084.744    8.8321280e-16
 4086.865    8.9860660e-16
 4088.986    8.6374350e-16
 4091.107    8.4577090e-16
 4093.228    8.9046130e-16
 4095.349    8.6876610e-16
 4097.470    8.0472640e-16
 4099.590    7.8170380e-16
 4101.711    8.2038980e-16
 4103.832    8.3689610e-16
 4105.953    8.0845260e-16
 4108.074    7.9507700e-16
 4110.195    7.5395770e-16
 4112.316    7.6647030e-16
 4114.437    8.0377220e-16
 4116.558    7.8784310e-16
 4118.679    8.0259040e-16
 4120.799    8.4434300e-16
 4122.920    8.3356970e-16
 4125.041    8.3171990e-16
 4127.162    8.2884820e-16
 4129.283    8.0272510e-16
 4131.404    8.3452490e-16
 4133.525    8.4687030e-16
 4135.646    8.3205420e-16
 4137.767    8.3786490e-16
 4139.888    8.7938190e-16
 4142.008    8.6987810e-16
 4144.129    8.5978750e-16
 4146.250    8.6220220e-16
 4148.371    8.4904110e-16
 4150.492    8.1155360e-16
 4152.613    8.6918780e-16
 4154.734    8.9175270e-16
 4156.855    8.9916890e-16
 4158.976    8.7091430e-16
 4161.097    8.4269900e-16
 4163.218    8.4138090e-16
 4165.338    8.6810920e-16
 4167.459    8.7248080e-16
 4169.580    8.3184550e-16
 4171.701    8.5359700e-16
 4173.822    8.6208200e-16
 4175.943    8.5316530e-16
 4178.064    8.3145590e-16
 4180.185    7.9141430e-16
 4182.306    7.9305120e-16
 4184.427    8.3161040e-16
 4186.547    8.3270270e-16
 4188.668    7.8544090e-16
 4190.789    8.1273390e-16
 4192.910    8.1270320e-16
 4195.031    7.6990660e-16
 4197.152    8.1995260e-16
 4199.273    7.6376090e-16
 4201.394    7.9194940e-16
 4203.515    7.9587550e-16
 4205.636    7.4556880e-16
 4207.756    7.2765420e-16
 4209.877    7.1904720e-16
 4211.998    7.5213740e-16
 4214.119    7.0646300e-16
 4216.240    6.8473100e-16
 4218.361    6.8805800e-16
 4220.482    6.8002180e-16
 4222.603    6.4841200e-16
 4224.724    6.3331190e-16
 4226.845    6.2450410e-16
 4228.965    5.9859510e-16
 4231.086    5.8129670e-16
 4233.207    5.8095240e-16
 4235.328    5.6181020e-16
 4237.449    5.0711620e-16
 4239.570    5.1936010e-16
 4241.691    4.9590560e-16
 4243.812    4.9291350e-16
 4245.933    4.7728860e-16
 4248.054    4.6568420e-16
 4250.175    4.4487180e-16
 4252.295    4.6885130e-16
 4254.416    5.1964320e-16
 4256.537    5.2335580e-16
 4258.658    4.9054840e-16
 4260.779    4.8110040e-16
 4262.900    5.1020730e-16
 4265.021    4.9797470e-16
 4267.142    4.9651260e-16
 4269.263    5.3342200e-16
 4271.384    5.4687240e-16
 4273.504    5.1687220e-16
 4275.625    5.2385760e-16
 4277.746    5.1521310e-16
 4279.867    5.1259240e-16
 4281.988    5.4256740e-16
 4284.109    5.3377970e-16
 4286.230    5.5677390e-16
 4288.351    5.7820660e-16
 4290.472    5.8581290e-16
 4292.593    6.1227560e-16
 4294.713    5.7875080e-16
 4296.834    6.1471570e-16
 4298.955    6.3492890e-16
 4301.076    5.9974170e-16
 4303.197    6.4511990e-16
 4305.318    6.1255410e-16
 4307.439    6.2349860e-16
 4309.560    6.2502320e-16
 4311.681    5.8003030e-16
 4313.802    5.8567220e-16
 4315.922    5.9069430e-16
 4318.043    6.0195960e-16
 4320.164    6.1887500e-16
 4322.285    6.5114430e-16
 4324.406    6.5647680e-16
 4326.527    6.1992430e-16
 4328.648    6.3115340e-16
 4330.769    6.4047940e-16
 4332.890    6.1618920e-16
 4335.011    6.6264390e-16
 4337.132    6.5275800e-16
 4339.252    6.1714160e-16
 4341.373    6.2827920e-16
 4343.494    6.5670140e-16
 4345.615    6.3295090e-16
 4347.736    6.5938920e-16
 4349.857    6.8300030e-16
 4351.978    6.4798910e-16
 4354.099    6.8219320e-16
 4356.220    6.9537570e-16
 4358.341    6.7556990e-16
 4360.461    7.0935270e-16
 4362.582    7.2997550e-16
 4364.703    7.2520900e-16
 4366.824    7.4615250e-16
 4368.945    7.5803470e-16
 4371.066    6.9465750e-16
 4373.187    7.1459700e-16
 4375.308    7.2431850e-16
 4377.429    7.1001030e-16
 4379.550    6.9832290e-16
 4381.670    7.2808500e-16
 4383.791    7.5851650e-16
 4385.912    7.4013060e-16
 4388.033    6.9672170e-16
 4390.154    7.0548590e-16
 4392.275    7.0560350e-16
 4394.396    7.7422500e-16
 4396.517    7.5659070e-16
 4398.638    7.2877470e-16
 4400.759    7.2842040e-16
 4402.879    7.4058380e-16
 4405.000    7.3010670e-16
 4407.121    7.3775440e-16
 4409.242    7.5996090e-16
 4411.363    7.8114160e-16
 4413.484    7.8046480e-16
 4415.605    7.6913990e-16
 4417.726    7.5758930e-16
 4419.847    7.7491910e-16
 4421.968    7.8085930e-16
 4424.089    7.4692130e-16
 4426.209    7.4033210e-16
 4428.330    7.5287570e-16
 4430.451    7.5967900e-16
 4432.572    7.3008780e-16
 4434.693    6.9297440e-16
 4436.814    7.2020330e-16
 4438.935    7.1217640e-16
 4441.056    7.1978530e-16
 4443.177    6.9639060e-16
 4445.298    7.1426320e-16
 4447.418    6.7811060e-16
 4449.539    6.5849780e-16
 4451.660    7.2004110e-16
 4453.781    6.3290770e-16
 4455.902    6.3546790e-16
 4458.023    6.6827840e-16
 4460.144    6.5811930e-16
 4462.265    6.5569040e-16
 4464.386    6.4889640e-16
 4466.507    6.3253760e-16
 4468.627    6.4852340e-16
 4470.748    6.4082780e-16
 4472.869    6.0591310e-16
 4474.990    6.0210360e-16
 4477.111    6.0131760e-16
 4479.232    6.1664190e-16
 4481.353    6.1512830e-16
 4483.474    6.0777030e-16
 4485.595    5.8951320e-16
 4487.716    5.6164470e-16
 4489.836    6.0542000e-16
 4491.957    5.8180710e-16
 4494.078    5.9271710e-16
 4496.199    6.2040070e-16
 4498.320    5.7306150e-16
 4500.441    5.9641770e-16
 4502.562    6.0253740e-16
 4504.683    6.1966860e-16
 4506.804    6.2628890e-16
 4508.925    6.1654430e-16
 4511.046    6.2443750e-16
 4513.166    6.6009190e-16
 4515.287    6.3338890e-16
 4517.408    6.4983650e-16
 4519.529    7.1683100e-16
 4521.650    7.3556960e-16
 4523.771    7.4527520e-16
 4525.892    7.5256200e-16
 4528.013    8.0777930e-16
 4530.134    8.3088380e-16
 4532.255    8.4426130e-16
 4534.375    8.8561920e-16
 4536.496    9.0625510e-16
 4538.617    9.3372250e-16
 4540.738    9.5368760e-16
 4542.859    9.6911690e-16
 4544.980    9.4320800e-16
 4547.101    9.8954350e-16
 4549.222    1.0142980e-15
 4551.343    1.0354160e-15
 4553.464    1.0466800e-15
 4555.584    1.0122810e-15
 4557.705    1.0345550e-15
 4559.826    1.0188320e-15
 4561.947    1.0168270e-15
 4564.068    1.0501030e-15
 4566.189    1.0905350e-15
 4568.310    1.1212930e-15
 4570.431    1.1401580e-15
 4572.552    1.0745600e-15
 4574.673    1.0619020e-15
 4576.793    1.1055640e-15
 4578.914    1.1515590e-15
 4581.035    1.1749550e-15
 4583.156    1.1466830e-15
 4585.277    1.1275740e-15
 4587.398    1.1545840e-15
 4589.519    1.2003770e-15
 4591.640    1.1834520e-15
 4593.761    1.1819690e-15
 4595.882    1.1826550e-15
 4598.003    1.1830535e-15
 4600.123    1.1823120e-15
 4602.244    1.2052375e-15
 4604.365    1.2278200e-15
 4606.486    1.2417630e-15
 4608.607    1.2951830e-15
 4610.728    1.3059290e-15
 4612.849    1.3404100e-15
 4614.970    1.3774440e-15
 4617.091    1.3583510e-15
 4619.212    1.3675510e-15
 4621.332    1.3935910e-15
 4623.453    1.4081460e-15
 4625.574    1.3878330e-15
 4627.695    1.3650430e-15
 4629.816    1.3847110e-15
 4631.937    1.3963280e-15
 4634.058    1.4317220e-15
 4636.179    1.4210850e-15
 4638.300    1.4002550e-15
 4640.421    1.3704970e-15
 4642.541    1.3793490e-15
 4644.662    1.4071040e-15
 4646.783    1.3995010e-15
 4648.904    1.3962740e-15
 4651.025    1.4180640e-15
 4653.146    1.4162480e-15
 4655.267    1.3716580e-15
 4657.388    1.3925850e-15
 4659.509    1.4304240e-15
 4661.630    1.4213110e-15
 4663.750    1.4132250e-15
 4665.871    1.4149780e-15
 4667.992    1.4163020e-15
 4670.113    1.4004680e-15
 4672.234    1.3578730e-15
 4674.355    1.3329520e-15
 4676.476    1.3290320e-15
 4678.597    1.3383360e-15
 4680.718    1.3218160e-15
 4682.839    1.3314610e-15
 4684.960    1.3028040e-15
 4687.080    1.2643420e-15
 4689.201    1.2476520e-15
 4691.322    1.2450220e-15
 4693.443    1.1931400e-15
 4695.564    1.1956730e-15
 4697.685    1.1800780e-15
 4699.806    1.1680890e-15
 4701.927    1.1736640e-15
 4704.048    1.1583770e-15
 4706.169    1.1291870e-15
 4708.289    1.1120870e-15
 4710.410    1.0919700e-15
 4712.531    1.0967000e-15
 4714.652    1.0952220e-15
 4716.773    1.0954420e-15
 4718.894    1.1241820e-15
 4721.015    1.0990190e-15
 4723.136    1.0487690e-15
 4725.257    1.0616280e-15
 4727.378    1.0682220e-15
 4729.498    1.0721130e-15
 4731.619    1.0899500e-15
 4733.740    1.0481020e-15
 4735.861    1.0378690e-15
 4737.982    1.0579470e-15
 4740.103    1.0159920e-15
 4742.224    9.6944910e-16
 4744.345    9.9489250e-16
 4746.466    9.9630700e-16
 4748.587    9.6077300e-16
 4750.707    9.8775730e-16
 4752.828    9.6107840e-16
 4754.949    9.4793250e-16
 4757.070    9.1796780e-16
 4759.191    8.7729190e-16
 4761.312    8.7372730e-16
 4763.433    8.4313300e-16
 4765.554    8.7422590e-16
 4767.675    8.5857670e-16
 4769.796    8.5528530e-16
 4771.917    8.8031420e-16
 4774.037    8.5677000e-16
 4776.158    8.2664720e-16
 4778.279    8.3362080e-16
 4780.400    8.2462020e-16
 4782.521    7.7916800e-16
 4784.642    7.6720030e-16
 4786.763    7.8991910e-16
 4788.884    7.6037930e-16
 4791.005    7.8034740e-16
 4793.126    8.0988780e-16
 4795.246    7.6143460e-16
 4797.367    7.7737500e-16
 4799.488    7.8586630e-16
 4801.609    8.2977320e-16
 4803.730    8.2428680e-16
 4805.851    8.4493030e-16
 4807.972    8.7592610e-16
 4810.093    8.8958480e-16
 4812.214    9.0393440e-16
 4814.335    9.3014020e-16
 4816.455    9.8815870e-16
 4818.576    1.0246780e-15
 4820.697    1.0324150e-15
 4822.818    1.0389090e-15
 4824.939    1.1035530e-15
 4827.060    1.1132080e-15
 4829.181    1.1152210e-15
 4831.302    1.1172340e-15
 4833.423    1.1563150e-15
 4835.544    1.1354095e-15
 4837.664    1.1426890e-15
 4839.785    1.1120320e-15
 4841.906    1.1281300e-15
 4844.027    1.1463940e-15
 4846.148    1.1569410e-15
 4848.269    1.1520360e-15
 4850.390    1.1282370e-15
 4852.511    1.1380390e-15
 4854.632    1.1361160e-15
 4856.753    1.1535150e-15
 4858.874    1.1851630e-15
 4860.994    1.1963860e-15
 4863.115    1.2134100e-15
 4865.236    1.2281950e-15
 4867.357    1.2433580e-15
 4869.478    1.3142080e-15
 4871.599    1.3668230e-15
 4873.720    1.3262800e-15
 4875.841    1.3366830e-15
 4877.962    1.3935080e-15
 4880.083    1.3905120e-15
 4882.203    1.4105050e-15
 4884.324    1.4657660e-15
 4886.445    1.5076280e-15
 4888.566    1.5053200e-15
 4890.687    1.5155430e-15
 4892.808    1.5475880e-15
 4894.929    1.5642290e-15
 4897.050    1.5552640e-15
 4899.171    1.5179750e-15
 4901.292    1.5561510e-15
 4903.412    1.5673040e-15
 4905.533    1.5606490e-15
 4907.654    1.5941060e-15
 4909.775    1.5783520e-15
 4911.896    1.5413380e-15
 4914.017    1.5420140e-15
 4916.138    1.5031500e-15
 4918.259    1.4617110e-15
 4920.380    1.4406000e-15
 4922.501    1.4386260e-15
 4924.621    1.4140460e-15
 4926.742    1.3511490e-15
 4928.863    1.3558790e-15
 4930.984    1.3370340e-15
 4933.105    1.3094630e-15
 4935.226    1.3081480e-15
 4937.347    1.2854890e-15
 4939.468    1.2291870e-15
 4941.589    1.1761640e-15
 4943.710    1.1494610e-15
 4945.831    1.1399930e-15
 4947.951    1.1294380e-15
 4950.072    1.1203400e-15
 4952.193    1.1578020e-15
 4954.314    1.1397430e-15
 4956.435    1.1422150e-15
