##########################
#
# SN II 199ca spectrum
#
##########################
#
# Reference : Gutierrez et al. 2017, ApJ, 850, 89
# Telescope : NTT
# Instrument: EMMI
# JD        : 2451317.545
#
#  wavelength    flux
#   (angtrom)   
 3348.544    1.0435200e-16
 3351.197    1.5426200e-16
 3353.849    2.2061670e-16
 3356.502    1.4297200e-16
 3359.154    1.3732700e-16
 3361.807    1.3168200e-16
 3364.460    1.0020260e-16
 3367.112    1.0341305e-16
 3369.765    1.0501828e-16
 3372.417    1.0662350e-16
 3375.070    1.0802560e-16
 3377.723    1.0942770e-16
 3380.375    1.0837613e-16
 3383.028    1.0872665e-16
 3385.680    1.0907718e-16
 3388.333    8.8487820e-17
 3390.985    9.8096630e-17
 3393.638    1.2562290e-16
 3396.291    1.2703060e-16
 3398.943    1.3739970e-16
 3401.596    1.3285270e-16
 3404.248    1.1884980e-16
 3406.901    8.4260250e-17
 3409.553    8.6010570e-17
 3412.206    8.6885730e-17
 3414.859    6.2568910e-17
 3417.511    8.7760890e-17
 3420.164    8.4464525e-17
 3422.816    8.2043320e-17
 3425.469    8.1066000e-17
 3428.121    8.3253923e-17
 3430.774    8.1554660e-17
 3433.427    9.4150360e-17
 3436.079    8.2404291e-17
 3438.732    8.8277326e-17
 3441.384    1.0248708e-16
 3444.037    1.0315689e-16
 3446.689    1.0732525e-16
 3449.342    1.1082380e-16
 3451.995    1.0382670e-16
 3454.647    1.0907453e-16
 3457.300    1.0645061e-16
 3459.952    1.1120220e-16
 3462.605    9.1148330e-17
 3465.257    9.9998366e-17
 3467.910    1.0560028e-16
 3470.563    9.3546120e-17
 3473.215    1.1961380e-16
 3475.868    1.3316120e-16
 3478.520    9.6977130e-17
 3481.173    9.0956780e-17
 3483.826    1.3062330e-16
 3486.478    1.2667280e-16
 3489.131    1.1284580e-16
 3491.783    9.1674270e-17
 3494.436    9.2305040e-17
 3497.088    1.3932190e-16
 3499.741    1.2485260e-16
 3502.394    1.0662570e-16
 3505.046    1.0276180e-16
 3507.699    8.2051210e-17
 3510.351    1.0493820e-16
 3513.004    1.2459580e-16
 3515.656    1.2769750e-16
 3518.309    1.3312190e-16
 3520.962    1.2276680e-16
 3523.614    1.1507430e-16
 3526.267    1.1126020e-16
 3528.919    1.0982240e-16
 3531.572    1.3278420e-16
 3534.224    1.2739240e-16
 3536.877    1.0325800e-16
 3539.530    1.0299340e-16
 3542.182    1.3824360e-16
 3544.835    1.3908170e-16
 3547.487    1.1932160e-16
 3550.140    1.1791050e-16
 3552.792    1.3042420e-16
 3555.445    1.3743570e-16
 3558.098    1.3026280e-16
 3560.750    1.1454030e-16
 3563.403    1.0780650e-16
 3566.055    1.5113220e-16
 3568.708    1.5261820e-16
 3571.360    1.0154510e-16
 3574.013    1.0153960e-16
 3576.666    1.0855310e-16
 3579.318    1.2770840e-16
 3581.971    1.4637780e-16
 3584.623    1.3860290e-16
 3587.276    1.3820780e-16
 3589.929    1.4294360e-16
 3592.581    1.3910450e-16
 3595.234    1.2175870e-16
 3597.886    1.4102405e-16
 3600.539    1.2053300e-16
 3603.191    1.5875690e-16
 3605.844    1.6233885e-16
 3608.497    1.7658580e-16
 3611.149    1.6592080e-16
 3613.802    1.6637350e-16
 3616.454    1.5929500e-16
 3619.107    1.5457670e-16
 3621.759    1.3227110e-16
 3624.412    1.5271445e-16
 3627.065    1.4221210e-16
 3629.717    1.5224550e-16
 3632.370    1.5318340e-16
 3635.022    1.5442750e-16
 3637.675    1.5874190e-16
 3640.327    1.5744770e-16
 3642.980    1.5414380e-16
 3645.633    1.5630200e-16
 3648.285    1.6202560e-16
 3650.938    1.6015520e-16
 3653.590    1.5733000e-16
 3656.243    1.4534630e-16
 3658.895    1.3325830e-16
 3661.548    1.4098680e-16
 3664.201    1.4169500e-16
 3666.853    1.4158450e-16
 3669.506    1.4672620e-16
 3672.158    1.5023360e-16
 3674.811    1.4030100e-16
 3677.464    1.4131710e-16
 3680.116    1.5003400e-16
 3682.769    1.4482280e-16
 3685.421    1.3619510e-16
 3688.074    1.4123270e-16
 3690.726    1.4837320e-16
 3693.379    1.3929240e-16
 3696.032    1.2824020e-16
 3698.684    1.0981030e-16
 3701.337    1.0336380e-16
 3703.989    1.1866680e-16
 3706.642    1.2235220e-16
 3709.294    1.2246340e-16
 3711.947    1.3472240e-16
 3714.600    1.5611180e-16
 3717.252    1.5804740e-16
 3719.905    1.5301340e-16
 3722.557    1.5103380e-16
 3725.210    1.5214850e-16
 3727.862    1.5081740e-16
 3730.515    1.6485420e-16
 3733.168    1.7896460e-16
 3735.820    1.8355650e-16
 3738.473    1.9047270e-16
 3741.125    1.9864260e-16
 3743.778    1.9799750e-16
 3746.430    1.9421670e-16
 3749.083    1.9999800e-16
 3751.736    1.8668660e-16
 3754.388    1.8767630e-16
 3757.041    2.0220230e-16
 3759.693    1.9964610e-16
 3762.346    2.0162710e-16
 3764.998    2.0158700e-16
 3767.651    2.0333000e-16
 3770.304    2.1053790e-16
 3772.956    1.9852150e-16
 3775.609    1.9458700e-16
 3778.261    2.0138780e-16
 3780.914    2.0445170e-16
 3783.567    2.0571010e-16
 3786.219    2.1630750e-16
 3788.872    2.2065280e-16
 3791.524    2.1278360e-16
 3794.177    2.2662300e-16
 3796.829    2.3400610e-16
 3799.482    2.3270330e-16
 3802.135    2.3236350e-16
 3804.787    2.3403050e-16
 3807.440    2.4317750e-16
 3810.092    2.3981850e-16
 3812.745    2.2854480e-16
 3815.397    2.4509900e-16
 3818.050    2.5034460e-16
 3820.703    2.5447540e-16
 3823.355    2.5477710e-16
 3826.008    2.2763130e-16
 3828.660    2.1623250e-16
 3831.313    2.1733560e-16
 3833.965    2.1502930e-16
 3836.618    2.0461830e-16
 3839.271    1.9821810e-16
 3841.923    2.0633500e-16
 3844.576    2.1194500e-16
 3847.228    1.9822020e-16
 3849.881    2.0513460e-16
 3852.533    2.0310710e-16
 3855.186    1.8693200e-16
 3857.839    1.7963550e-16
 3860.491    1.9306810e-16
 3863.144    1.9492350e-16
 3865.796    1.8566820e-16
 3868.449    1.8219850e-16
 3871.101    1.7819970e-16
 3873.754    1.7972830e-16
 3876.407    1.7970110e-16
 3879.059    1.7731160e-16
 3881.712    1.9021130e-16
 3884.364    1.8899380e-16
 3887.017    1.8163840e-16
 3889.670    1.8351720e-16
 3892.322    1.8811240e-16
 3894.975    1.8326060e-16
 3897.627    1.8077360e-16
 3900.280    1.8502600e-16
 3902.932    1.8377250e-16
 3905.585    1.9915490e-16
 3908.238    1.9747120e-16
 3910.890    1.6532870e-16
 3913.543    1.9604485e-16
 3916.195    1.6976150e-16
 3918.848    1.9461850e-16
 3921.500    1.9873670e-16
 3924.153    2.2085970e-16
 3926.806    2.2650620e-16
 3929.458    2.2465300e-16
 3932.111    2.2464900e-16
 3934.763    2.2594000e-16
 3937.416    2.2756570e-16
 3940.068    2.3354140e-16
 3942.721    2.4357360e-16
 3945.374    2.5481580e-16
 3948.026    2.6756210e-16
 3950.679    2.8005020e-16
 3953.331    2.9101720e-16
 3955.984    2.9973750e-16
 3958.636    3.0549110e-16
 3961.289    3.0550470e-16
 3963.942    3.0027110e-16
 3966.594    2.9755660e-16
 3969.247    3.0928790e-16
 3971.899    3.1840690e-16
 3974.552    3.3981110e-16
 3977.204    3.7311390e-16
 3979.857    3.8473180e-16
 3982.510    3.9730120e-16
 3985.162    4.0790900e-16
 3987.815    4.1577250e-16
 3990.467    4.3151120e-16
 3993.120    4.4185210e-16
 3995.772    4.5478830e-16
 3998.425    4.6151650e-16
 4001.078    4.4462860e-16
 4003.730    4.4045080e-16
 4006.383    4.5242140e-16
 4009.035    4.6224590e-16
 4011.688    4.5644250e-16
 4014.341    4.5845760e-16
 4016.993    4.7240520e-16
 4019.646    4.8646720e-16
 4022.298    4.9168510e-16
 4024.951    5.0449580e-16
 4027.603    5.0463790e-16
 4030.256    5.0116810e-16
 4032.909    5.0994710e-16
 4035.561    5.1051000e-16
 4038.214    4.9976230e-16
 4040.866    4.8656830e-16
 4043.519    4.8103380e-16
 4046.171    4.8308760e-16
 4048.824    4.8405890e-16
 4051.477    4.7994860e-16
 4054.129    4.7139000e-16
 4056.782    4.6107490e-16
 4059.434    4.5452420e-16
 4062.087    4.5547990e-16
 4064.739    4.5646210e-16
 4067.392    4.4577070e-16
 4070.045    4.5440860e-16
 4072.697    4.6005480e-16
 4075.350    4.5304300e-16
 4078.002    4.5553710e-16
 4080.655    4.5307280e-16
 4083.307    4.5047720e-16
 4085.960    4.5317600e-16
 4088.613    4.5768570e-16
 4091.265    4.5452730e-16
 4093.918    4.3914280e-16
 4096.570    4.1964790e-16
 4099.223    4.0839280e-16
 4101.875    4.0380250e-16
 4104.528    4.0096450e-16
 4107.181    3.9444730e-16
 4109.833    3.8421540e-16
 4112.486    3.7940570e-16
 4115.138    3.8570570e-16
 4117.791    3.9621750e-16
 4120.444    4.0263640e-16
 4123.096    4.0934940e-16
 4125.749    4.0493480e-16
 4128.401    4.0516730e-16
 4131.054    4.2091290e-16
 4133.706    4.2982000e-16
 4136.359    4.3491630e-16
 4139.012    4.3962040e-16
 4141.664    4.4355380e-16
 4144.317    4.4285690e-16
 4146.969    4.3871270e-16
 4149.622    4.3936570e-16
 4152.274    4.4403750e-16
 4154.927    4.4123120e-16
 4157.580    4.3794580e-16
 4160.232    4.3498810e-16
 4162.885    4.3192160e-16
 4165.537    4.2850450e-16
 4168.190    4.1911590e-16
 4170.842    4.1538500e-16
 4173.495    4.1991180e-16
 4176.148    4.2232140e-16
 4178.800    4.1813200e-16
 4181.453    4.0170320e-16
 4184.105    3.8743720e-16
 4186.758    3.9219570e-16
 4189.410    3.9949480e-16
 4192.063    3.8976910e-16
 4194.716    3.7827920e-16
 4197.368    3.8529130e-16
 4200.021    3.8700760e-16
 4202.673    3.8864600e-16
 4205.326    3.8400370e-16
 4207.978    3.7056320e-16
 4210.631    3.6733450e-16
 4213.284    3.5527710e-16
 4215.936    3.4364770e-16
 4218.589    3.4126990e-16
 4221.241    3.2925770e-16
 4223.894    2.9427310e-16
 4226.547    2.7489000e-16
 4229.199    2.8280690e-16
 4231.852    2.7052160e-16
 4234.504    2.6218330e-16
 4237.157    2.5216590e-16
 4239.809    2.3991630e-16
 4242.462    2.4026670e-16
 4245.115    2.3736580e-16
 4247.767    2.2674510e-16
 4250.420    2.1713160e-16
 4253.072    2.1803330e-16
 4255.725    2.1314720e-16
 4258.377    2.1939680e-16
 4261.030    2.3115010e-16
 4263.683    2.2691690e-16
 4266.335    2.2520040e-16
 4268.988    2.2477940e-16
 4271.640    2.2587050e-16
 4274.293    2.3229500e-16
 4276.945    2.4418570e-16
 4279.598    2.5361860e-16
 4282.251    2.5561900e-16
 4284.903    2.5475150e-16
 4287.556    2.6492600e-16
 4290.208    2.6454630e-16
 4292.861    2.6714360e-16
 4295.513    2.8208420e-16
 4298.166    2.7378970e-16
 4300.819    2.7483380e-16
 4303.471    2.8003430e-16
 4306.124    2.7685410e-16
 4308.776    2.7728580e-16
 4311.429    2.8569380e-16
 4314.081    2.9334590e-16
 4316.734    2.9362280e-16
 4319.387    2.9137140e-16
 4322.039    2.9151420e-16
 4324.692    2.9138710e-16
 4327.344    2.8630430e-16
 4329.997    2.7720430e-16
 4332.650    2.7887950e-16
 4335.302    2.8723500e-16
 4337.955    2.9023540e-16
 4340.607    2.8325360e-16
 4343.260    2.8401850e-16
 4345.912    2.9251230e-16
 4348.565    3.0330390e-16
 4351.218    3.1045930e-16
 4353.870    3.0650770e-16
 4356.523    3.1508040e-16
 4359.175    3.2916100e-16
 4361.828    3.2854560e-16
 4364.480    3.2997730e-16
 4367.133    3.3050130e-16
 4369.786    3.3721000e-16
 4372.438    3.4996640e-16
 4375.091    3.4259520e-16
 4377.743    3.2925700e-16
 4380.396    3.2554430e-16
 4383.048    3.3221820e-16
 4385.701    3.3278370e-16
 4388.354    3.3761600e-16
 4391.006    3.3371740e-16
 4393.659    3.1729580e-16
 4396.311    3.1347240e-16
 4398.964    3.3392890e-16
 4401.616    3.4944940e-16
 4404.269    3.4584290e-16
 4406.922    3.4706040e-16
 4409.574    3.5448670e-16
 4412.227    3.6405180e-16
 4414.879    3.7393510e-16
 4417.532    3.8385250e-16
 4420.185    3.8052530e-16
 4422.837    3.7266280e-16
 4425.490    3.7066610e-16
 4428.142    3.7279460e-16
 4430.795    3.6184200e-16
 4433.447    3.4614000e-16
 4436.100    3.4511340e-16
 4438.753    3.6233770e-16
 4441.405    3.6028020e-16
 4444.058    3.5150140e-16
 4446.710    3.4561360e-16
 4449.363    3.4229700e-16
 4452.015    3.4318340e-16
 4454.668    3.4147920e-16
 4457.321    3.3719740e-16
 4459.973    3.3226010e-16
 4462.626    3.2265140e-16
 4465.278    3.2123370e-16
 4467.931    3.1484990e-16
 4470.583    2.9928820e-16
 4473.236    3.0309160e-16
 4475.889    3.0551860e-16
 4478.541    3.0191520e-16
 4481.194    2.9804180e-16
 4483.846    2.9766700e-16
 4486.499    2.9377680e-16
 4489.151    2.8801940e-16
 4491.804    2.8487230e-16
 4494.457    2.8495420e-16
 4497.109    2.7927450e-16
 4499.762    2.8542200e-16
 4502.414    2.9906400e-16
 4505.067    2.9563370e-16
 4507.719    2.9531370e-16
 4510.372    3.0225500e-16
 4513.025    3.1059690e-16
 4515.677    3.1489310e-16
 4518.330    3.2250040e-16
 4520.982    3.3235910e-16
 4523.635    3.4333480e-16
 4526.288    3.5655420e-16
 4528.940    3.7386820e-16
 4531.593    3.9523930e-16
 4534.245    4.1046680e-16
 4536.898    4.1750200e-16
 4539.550    4.4073230e-16
 4542.203    4.6002400e-16
 4544.856    4.7911480e-16
 4547.508    5.0194260e-16
 4550.161    5.0427550e-16
 4552.813    5.2175280e-16
 4555.466    5.5202950e-16
 4558.118    5.7055270e-16
 4560.771    5.6531460e-16
 4563.424    5.7840110e-16
 4566.076    5.9617360e-16
 4568.729    6.0657610e-16
 4571.381    6.2833320e-16
 4574.034    6.2067020e-16
 4576.686    6.1325280e-16
 4579.339    6.2668700e-16
 4581.992    6.3864620e-16
 4584.644    6.4499520e-16
 4587.297    6.4302060e-16
 4589.949    6.4366810e-16
 4592.602    6.6027380e-16
 4595.254    6.7571380e-16
 4597.907    6.8937130e-16
 4600.560    6.9535510e-16
 4603.212    6.9083290e-16
 4605.865    7.0268300e-16
 4608.517    7.0308910e-16
 4611.170    6.9961470e-16
 4613.822    7.2043140e-16
 4616.475    7.5305180e-16
 4619.128    7.6823310e-16
 4621.780    7.6880360e-16
 4624.433    7.7490660e-16
 4627.085    7.8884810e-16
 4629.738    8.0573000e-16
 4632.391    8.1731520e-16
 4635.043    8.1958600e-16
 4637.696    8.1698400e-16
 4640.348    8.1292970e-16
 4643.001    8.1530080e-16
 4645.653    8.2044070e-16
 4648.306    8.1302970e-16
 4650.959    8.3286800e-16
 4653.611    8.3446320e-16
 4656.264    8.1384350e-16
 4658.916    8.4049090e-16
 4661.569    8.4338650e-16
 4664.221    8.2644400e-16
 4666.874    8.2176610e-16
 4669.527    8.4096730e-16
 4672.179    8.4770220e-16
 4674.832    8.3731140e-16
 4677.484    8.2462310e-16
 4680.137    8.2122040e-16
 4682.789    8.0898510e-16
 4685.442    7.9755330e-16
 4688.095    7.7854810e-16
 4690.747    7.4337780e-16
 4693.400    7.3362590e-16
 4696.052    7.3096300e-16
 4698.705    7.2188930e-16
 4701.357    7.0747010e-16
 4704.010    6.8907710e-16
 4706.663    6.6629840e-16
 4709.315    6.4805920e-16
 4711.968    6.4255020e-16
 4714.620    6.4460860e-16
 4717.273    6.4438830e-16
 4719.925    6.3254320e-16
 4722.578    6.1509480e-16
 4725.231    6.1441600e-16
 4727.883    6.1056750e-16
 4730.536    6.0483810e-16
 4733.188    6.0703440e-16
 4735.841    6.1472820e-16
 4738.494    5.8486470e-16
 4741.146    5.6810510e-16
 4743.799    5.8095580e-16
 4746.451    5.6667330e-16
 4749.104    5.5863130e-16
 4751.756    5.4245600e-16
 4754.409    5.2502380e-16
 4757.062    5.3606330e-16
 4759.714    5.4130900e-16
 4762.367    5.3848940e-16
 4765.019    5.2246630e-16
 4767.672    4.9250270e-16
 4770.324    4.9053400e-16
 4772.977    5.0453870e-16
 4775.630    5.0006340e-16
 4778.282    4.6636670e-16
 4780.935    4.5540410e-16
 4783.587    4.5149980e-16
 4786.240    4.3934610e-16
 4788.892    4.2171220e-16
 4791.545    4.1388480e-16
 4794.198    3.9736620e-16
 4796.850    3.8448700e-16
 4799.503    3.8943060e-16
 4802.155    3.9179950e-16
 4804.808    4.0342670e-16
 4807.460    4.1659800e-16
 4810.113    4.2724100e-16
 4812.766    4.4984900e-16
 4815.418    4.5573420e-16
 4818.071    4.6041470e-16
 4820.723    4.7921870e-16
 4823.376    4.9881960e-16
 4826.028    5.2332200e-16
 4828.681    5.4583730e-16
 4831.334    5.6352450e-16
 4833.986    5.8240830e-16
 4836.639    6.0475870e-16
 4839.291    6.0995990e-16
 4841.944    6.0412000e-16
 4844.597    6.1493750e-16
 4847.249    6.2540960e-16
 4849.902    6.3959080e-16
 4852.554    6.4871160e-16
 4855.207    6.4257320e-16
 4857.859    6.4924670e-16
 4860.512    6.6570610e-16
 4863.165    6.8185050e-16
 4865.817    6.9247460e-16
 4868.470    7.0182780e-16
 4871.122    7.1765080e-16
 4873.775    7.4511960e-16
 4876.427    7.7698450e-16
 4879.080    7.9110800e-16
 4881.733    8.0716870e-16
 4884.385    8.2066290e-16
 4887.038    8.2750320e-16
 4889.690    8.5046880e-16
 4892.343    8.5770750e-16
 4894.995    8.7764960e-16
 4897.648    9.1970890e-16
 4900.301    9.2893760e-16
 4902.953    9.3386400e-16
 4905.606    9.3814630e-16
 4908.258    9.3637290e-16
 4910.911    9.3152860e-16
 4913.563    9.3639790e-16
 4916.216    9.4382570e-16
 4918.869    9.4664760e-16
 4921.521    9.4365630e-16
 4924.174    9.1830990e-16
 4926.826    8.9749490e-16
 4929.479    8.9116150e-16
 4932.131    8.7752380e-16
 4934.784    8.3742980e-16
 4937.437    8.0328870e-16
 4940.089    7.8729830e-16
 4942.742    7.7399900e-16
 4945.394    7.5861350e-16
 4948.047    7.5112700e-16
 4950.700    7.3275660e-16
 4953.352    6.9283720e-16
 4956.005    6.8439750e-16
 4958.657    6.7923240e-16
 4961.310    6.8245290e-16
 4963.962    7.0256130e-16
 4966.615    7.0157870e-16
 4969.268    7.0753970e-16
 4971.920    7.1122920e-16
 4974.573    7.0742670e-16
 4977.225    7.3056010e-16
 4979.878    7.5068280e-16
 4982.530    7.5308030e-16
 4985.183    7.5514550e-16
 4987.836    7.8760780e-16
 4990.488    7.9279580e-16
 4993.141    8.0146720e-16
 4995.793    8.3218490e-16
 4998.446    8.4588670e-16
 5001.098    8.4430840e-16
 5003.751    8.6600370e-16
 5006.404    8.7674180e-16
 5009.056    8.5688690e-16
 5011.709    8.5855020e-16
 5014.361    8.6931770e-16
 5017.014    8.7035820e-16
 5019.666    8.7228770e-16
 5022.319    8.7603320e-16
 5024.972    8.9357790e-16
 5027.624    9.0574930e-16
 5030.277    8.9390030e-16
 5032.929    8.9634600e-16
 5035.582    8.9050970e-16
 5038.234    8.7780290e-16
 5040.887    8.7533170e-16
 5043.540    8.8596080e-16
 5046.192    8.7715690e-16
 5048.845    8.4409080e-16
 5051.497    8.1601130e-16
 5054.150    7.8997930e-16
 5056.803    7.6033440e-16
 5059.455    7.4286430e-16
 5062.108    7.4351820e-16
 5064.760    7.1692200e-16
 5067.413    6.9960290e-16
 5070.065    6.9128880e-16
 5072.718    6.6756840e-16
 5075.371    6.4283070e-16
 5078.023    6.3164300e-16
 5080.676    6.1011130e-16
 5083.328    5.8549730e-16
 5085.981    5.8494700e-16
 5088.633    5.7049900e-16
 5091.286    5.4263860e-16
 5093.939    5.1980030e-16
 5096.591    5.0273370e-16
 5099.244    4.9502820e-16
 5101.896    4.8072390e-16
 5104.549    4.6280180e-16
 5107.201    4.7019770e-16
 5109.854    4.6800460e-16
 5112.507    4.4479760e-16
 5115.159    4.5416110e-16
 5117.812    4.6072770e-16
 5120.464    4.5071910e-16
 5123.117    4.4475390e-16
 5125.769    4.4729110e-16
 5128.422    4.6484610e-16
 5131.075    4.7444640e-16
 5133.727    4.7746370e-16
 5136.380    4.7906140e-16
 5139.032    4.7463500e-16
 5141.685    4.7550730e-16
 5144.337    4.8497050e-16
 5146.990    4.8238350e-16
 5149.643    5.0378200e-16
 5152.295    5.0527300e-16
 5154.948    4.9895700e-16
 5157.600    5.0882760e-16
 5160.253    5.1997240e-16
 5162.906    5.4009060e-16
 5165.558    5.5612530e-16
 5168.211    5.7831510e-16
 5170.863    6.0215370e-16
 5173.516    6.1306620e-16
 5176.168    6.0334030e-16
 5178.821    6.0050630e-16
 5181.474    6.2724270e-16
 5184.126    6.2274650e-16
 5186.779    6.3686590e-16
 5189.431    6.4533540e-16
 5192.084    6.5572740e-16
 5194.736    6.7324030e-16
 5197.389    6.4589690e-16
 5200.042    6.4654550e-16
 5202.694    6.8689590e-16
 5205.347    6.7722830e-16
 5207.999    6.9852560e-16
 5210.652    6.9019900e-16
 5213.304    7.0322190e-16
 5215.957    7.4294600e-16
 5218.610    7.5030290e-16
 5221.262    7.6151050e-16
 5223.915    7.4071880e-16
 5226.567    7.5179430e-16
 5229.220    7.6965860e-16
 5231.872    7.6671640e-16
 5234.525    7.6332660e-16
 5237.178    7.2551290e-16
 5239.830    7.2707730e-16
 5242.483    7.3386900e-16
 5245.135    7.0679500e-16
 5247.788    7.1862120e-16
 5250.440    7.1270810e-16
 5253.093    7.2660440e-16
 5255.746    7.0030400e-16
 5258.398    6.6770460e-16
 5261.051    6.9583810e-16
 5263.703    6.8487890e-16
 5266.356    6.6803370e-16
 5269.009    6.8111360e-16
 5271.661    6.8190370e-16
 5274.314    7.1206210e-16
 5276.966    7.3341360e-16
 5279.619    7.2882300e-16
 5282.271    7.3226365e-16
 5284.924    7.3283862e-16
